# Temperature [K], Thermal Conductivity (xx, xy, xz, yx, yy, yz, zx, zy, zz) [W/mK]
      0.00            nan            nan            nan            nan            nan            nan            nan            nan            nan
     10.00    179215.9644         0.0422         0.0422         0.0422    179215.9644         0.0422         0.0422         0.0422    179215.9644
     20.00     43169.1683         0.0063         0.0063         0.0063     43169.1683         0.0063         0.0063         0.0063     43169.1683
     30.00     16145.6123         0.0014         0.0014         0.0014     16145.6123         0.0014         0.0014         0.0014     16145.6123
     40.00      9111.0714         0.0005         0.0005         0.0005      9111.0714         0.0005         0.0005         0.0005      9111.0714
     50.00      5701.5287         0.0003         0.0003         0.0003      5701.5287         0.0003         0.0003         0.0003      5701.5287
     60.00      3565.5655         0.0002         0.0002         0.0002      3565.5655         0.0002         0.0002         0.0002      3565.5655
     70.00      2305.3978         0.0001         0.0001         0.0001      2305.3978         0.0001         0.0001         0.0001      2305.3978
     80.00      1576.8763         0.0001         0.0001         0.0001      1576.8763         0.0001         0.0001         0.0001      1576.8763
     90.00      1139.9641         0.0001         0.0001         0.0001      1139.9641         0.0001         0.0001         0.0001      1139.9641
    100.00       864.2909         0.0000         0.0000         0.0000       864.2909         0.0000         0.0000         0.0000       864.2909
    110.00       681.6818         0.0000         0.0000         0.0000       681.6818         0.0000         0.0000         0.0000       681.6818
    120.00       555.4056         0.0000         0.0000         0.0000       555.4056         0.0000         0.0000         0.0000       555.4056
    130.00       464.7685         0.0000         0.0000         0.0000       464.7685         0.0000         0.0000         0.0000       464.7685
    140.00       397.5808         0.0000         0.0000         0.0000       397.5808         0.0000         0.0000         0.0000       397.5808
    150.00       346.3633         0.0000         0.0000         0.0000       346.3633         0.0000         0.0000         0.0000       346.3633
    160.00       306.3576         0.0000         0.0000         0.0000       306.3576         0.0000         0.0000         0.0000       306.3576
    170.00       274.4368         0.0000         0.0000         0.0000       274.4368         0.0000         0.0000         0.0000       274.4368
    180.00       248.4866         0.0000         0.0000         0.0000       248.4866         0.0000         0.0000         0.0000       248.4866
    190.00       227.0403         0.0000         0.0000         0.0000       227.0403         0.0000         0.0000         0.0000       227.0403
    200.00       209.0568         0.0000         0.0000         0.0000       209.0568         0.0000         0.0000         0.0000       209.0568
    210.00       193.7815         0.0000         0.0000         0.0000       193.7815         0.0000         0.0000         0.0000       193.7815
    220.00       180.6574         0.0000         0.0000         0.0000       180.6574         0.0000         0.0000         0.0000       180.6574
    230.00       169.2660         0.0000         0.0000         0.0000       169.2660         0.0000         0.0000         0.0000       169.2660
    240.00       159.2881         0.0000         0.0000         0.0000       159.2881         0.0000         0.0000         0.0000       159.2881
    250.00       150.4768         0.0000         0.0000         0.0000       150.4768         0.0000         0.0000         0.0000       150.4768
    260.00       142.6382         0.0000         0.0000         0.0000       142.6382         0.0000         0.0000         0.0000       142.6382
    270.00       135.6188         0.0000         0.0000         0.0000       135.6188         0.0000         0.0000         0.0000       135.6188
    280.00       129.2953         0.0000         0.0000         0.0000       129.2953         0.0000         0.0000         0.0000       129.2953
    290.00       123.5676         0.0000         0.0000         0.0000       123.5676         0.0000         0.0000         0.0000       123.5676
    300.00       118.3541         0.0000         0.0000         0.0000       118.3541         0.0000         0.0000         0.0000       118.3541
    310.00       113.5871         0.0000         0.0000         0.0000       113.5871         0.0000         0.0000         0.0000       113.5871
    320.00       109.2106         0.0000         0.0000         0.0000       109.2106         0.0000         0.0000         0.0000       109.2106
    330.00       105.1772         0.0000         0.0000         0.0000       105.1772         0.0000         0.0000         0.0000       105.1772
    340.00       101.4473         0.0000         0.0000         0.0000       101.4473         0.0000         0.0000         0.0000       101.4473
    350.00        97.9869         0.0000         0.0000         0.0000        97.9869         0.0000         0.0000         0.0000        97.9869
    360.00        94.7671         0.0000         0.0000         0.0000        94.7671         0.0000         0.0000         0.0000        94.7671
    370.00        91.7630         0.0000         0.0000         0.0000        91.7630         0.0000         0.0000         0.0000        91.7630
    380.00        88.9530         0.0000         0.0000         0.0000        88.9530         0.0000         0.0000         0.0000        88.9530
    390.00        86.3183         0.0000         0.0000         0.0000        86.3183         0.0000         0.0000         0.0000        86.3183
    400.00        83.8426         0.0000         0.0000         0.0000        83.8426         0.0000         0.0000         0.0000        83.8426
    410.00        81.5116         0.0000         0.0000         0.0000        81.5116         0.0000         0.0000         0.0000        81.5116
    420.00        79.3125         0.0000         0.0000         0.0000        79.3125         0.0000         0.0000         0.0000        79.3125
    430.00        77.2341         0.0000         0.0000         0.0000        77.2341         0.0000         0.0000         0.0000        77.2341
    440.00        75.2665         0.0000         0.0000         0.0000        75.2665         0.0000         0.0000         0.0000        75.2665
    450.00        73.4007         0.0000         0.0000         0.0000        73.4007         0.0000         0.0000         0.0000        73.4007
    460.00        71.6290         0.0000         0.0000         0.0000        71.6290         0.0000         0.0000         0.0000        71.6290
    470.00        69.9441         0.0000         0.0000         0.0000        69.9441         0.0000         0.0000         0.0000        69.9441
    480.00        68.3396         0.0000         0.0000         0.0000        68.3396         0.0000         0.0000         0.0000        68.3396
    490.00        66.8098         0.0000         0.0000         0.0000        66.8098         0.0000         0.0000         0.0000        66.8098
    500.00        65.3494         0.0000         0.0000         0.0000        65.3494         0.0000         0.0000         0.0000        65.3494
    510.00        63.9537         0.0000         0.0000         0.0000        63.9537         0.0000         0.0000         0.0000        63.9537
    520.00        62.6184         0.0000         0.0000         0.0000        62.6184         0.0000         0.0000         0.0000        62.6184
    530.00        61.3395         0.0000         0.0000         0.0000        61.3395         0.0000         0.0000         0.0000        61.3395
    540.00        60.1135         0.0000         0.0000         0.0000        60.1135         0.0000         0.0000         0.0000        60.1135
    550.00        58.9370         0.0000         0.0000         0.0000        58.9370         0.0000         0.0000         0.0000        58.9370
    560.00        57.8071         0.0000         0.0000         0.0000        57.8071         0.0000         0.0000         0.0000        57.8071
    570.00        56.7209         0.0000         0.0000         0.0000        56.7209         0.0000         0.0000         0.0000        56.7209
    580.00        55.6760         0.0000         0.0000         0.0000        55.6760         0.0000         0.0000         0.0000        55.6760
    590.00        54.6699         0.0000         0.0000         0.0000        54.6699         0.0000         0.0000         0.0000        54.6699
    600.00        53.7005         0.0000         0.0000         0.0000        53.7005         0.0000         0.0000         0.0000        53.7005
    610.00        52.7657         0.0000         0.0000         0.0000        52.7657         0.0000         0.0000         0.0000        52.7657
    620.00        51.8638         0.0000         0.0000         0.0000        51.8638         0.0000         0.0000         0.0000        51.8638
    630.00        50.9930         0.0000         0.0000         0.0000        50.9930         0.0000         0.0000         0.0000        50.9930
    640.00        50.1516         0.0000         0.0000         0.0000        50.1516         0.0000         0.0000         0.0000        50.1516
    650.00        49.3381         0.0000         0.0000         0.0000        49.3381         0.0000         0.0000         0.0000        49.3381
    660.00        48.5513         0.0000         0.0000         0.0000        48.5513         0.0000         0.0000         0.0000        48.5513
    670.00        47.7897         0.0000         0.0000         0.0000        47.7897         0.0000         0.0000         0.0000        47.7897
    680.00        47.0521         0.0000         0.0000         0.0000        47.0521         0.0000         0.0000         0.0000        47.0521
    690.00        46.3374         0.0000         0.0000         0.0000        46.3374         0.0000         0.0000         0.0000        46.3374
    700.00        45.6446         0.0000         0.0000         0.0000        45.6446         0.0000         0.0000         0.0000        45.6446
    710.00        44.9726         0.0000         0.0000         0.0000        44.9726         0.0000         0.0000         0.0000        44.9726
    720.00        44.3205         0.0000         0.0000         0.0000        44.3205         0.0000         0.0000         0.0000        44.3205
    730.00        43.6873         0.0000         0.0000         0.0000        43.6873         0.0000         0.0000         0.0000        43.6873
    740.00        43.0724         0.0000         0.0000         0.0000        43.0724         0.0000         0.0000         0.0000        43.0724
    750.00        42.4748         0.0000         0.0000         0.0000        42.4748         0.0000         0.0000         0.0000        42.4748
    760.00        41.8939         0.0000         0.0000         0.0000        41.8939         0.0000         0.0000         0.0000        41.8939
    770.00        41.3289         0.0000         0.0000         0.0000        41.3289         0.0000         0.0000         0.0000        41.3289
    780.00        40.7792         0.0000         0.0000         0.0000        40.7792         0.0000         0.0000         0.0000        40.7792
    790.00        40.2442         0.0000         0.0000         0.0000        40.2442         0.0000         0.0000         0.0000        40.2442
    800.00        39.7233         0.0000         0.0000         0.0000        39.7233         0.0000         0.0000         0.0000        39.7233
    810.00        39.2159         0.0000         0.0000         0.0000        39.2159         0.0000         0.0000         0.0000        39.2159
    820.00        38.7215         0.0000         0.0000         0.0000        38.7215         0.0000         0.0000         0.0000        38.7215
    830.00        38.2396         0.0000         0.0000         0.0000        38.2396         0.0000         0.0000         0.0000        38.2396
    840.00        37.7697         0.0000         0.0000         0.0000        37.7697         0.0000         0.0000         0.0000        37.7697
    850.00        37.3114         0.0000         0.0000         0.0000        37.3114         0.0000         0.0000         0.0000        37.3114
    860.00        36.8642         0.0000         0.0000         0.0000        36.8642         0.0000         0.0000         0.0000        36.8642
    870.00        36.4278         0.0000         0.0000         0.0000        36.4278         0.0000         0.0000         0.0000        36.4278
    880.00        36.0017         0.0000         0.0000         0.0000        36.0017         0.0000         0.0000         0.0000        36.0017
    890.00        35.5856         0.0000         0.0000         0.0000        35.5856         0.0000         0.0000         0.0000        35.5856
    900.00        35.1792         0.0000         0.0000         0.0000        35.1792         0.0000         0.0000         0.0000        35.1792
    910.00        34.7820         0.0000         0.0000         0.0000        34.7820         0.0000         0.0000         0.0000        34.7820
    920.00        34.3938         0.0000         0.0000         0.0000        34.3938         0.0000         0.0000         0.0000        34.3938
    930.00        34.0143         0.0000         0.0000         0.0000        34.0143         0.0000         0.0000         0.0000        34.0143
    940.00        33.6432         0.0000         0.0000         0.0000        33.6432         0.0000         0.0000         0.0000        33.6432
    950.00        33.2802         0.0000         0.0000         0.0000        33.2802         0.0000         0.0000         0.0000        33.2802
    960.00        32.9250         0.0000         0.0000         0.0000        32.9250         0.0000         0.0000         0.0000        32.9250
    970.00        32.5774         0.0000         0.0000         0.0000        32.5774         0.0000         0.0000         0.0000        32.5774
    980.00        32.2372         0.0000         0.0000         0.0000        32.2372         0.0000         0.0000         0.0000        32.2372
    990.00        31.9040         0.0000         0.0000         0.0000        31.9040         0.0000         0.0000         0.0000        31.9040
   1000.00        31.5778         0.0000         0.0000         0.0000        31.5778         0.0000         0.0000         0.0000        31.5778
